ALV-5000/E-WIN Data
Date :	"14-11-18"
Time :	"13:08:06"
Samplename : 	"loaded 20mW VV 5 ul do 300"
Temperature [K] :	     293.00000
Viscosity [cp]  :	       1.01016
Refractive Index:	       1.33200
Wavelength [nm] :	     532.00000
Angle [°]       :	     130.00000
Duration [s]    :	        60
Runs            :	         4
Mode            :	"SINGLE CROSS CH0"
MeanCR0 [kHz]   :	     116.62865
MeanCR1 [kHz]   :	     100.08969

"Correlation (Multi)"
"Lag [ms]"	"Average"	"Run  1"	"Run  2"	"Run  3"	"Run  4"	
  2.00000E-004	  7.95186E-001	  7.99464E-001	  8.00776E-001	  7.88951E-001	  7.91554E-001	
  4.00000E-004	  7.93180E-001	  7.95916E-001	  7.93155E-001	  7.92660E-001	  7.90990E-001	
  6.00000E-004	  7.91199E-001	  7.91934E-001	  7.90560E-001	  7.92476E-001	  7.89826E-001	
  8.00000E-004	  7.91951E-001	  7.97106E-001	  7.92054E-001	  7.87874E-001	  7.90769E-001	
  1.00000E-003	  7.92502E-001	  7.94926E-001	  7.93734E-001	  7.89531E-001	  7.91818E-001	
  1.20000E-003	  7.90371E-001	  7.97377E-001	  7.92018E-001	  7.85156E-001	  7.86934E-001	
  1.40000E-003	  7.88323E-001	  7.88415E-001	  7.91182E-001	  7.87527E-001	  7.86170E-001	
  1.60000E-003	  7.88749E-001	  7.84938E-001	  7.90760E-001	  7.96519E-001	  7.82777E-001	
  1.80000E-003	  7.87619E-001	  7.89854E-001	  7.88758E-001	  7.86345E-001	  7.85520E-001	
  2.00000E-003	  7.88011E-001	  7.94071E-001	  7.87171E-001	  7.88009E-001	  7.82792E-001	
  2.20000E-003	  7.87467E-001	  7.94149E-001	  7.86778E-001	  7.85276E-001	  7.83663E-001	
  2.40000E-003	  7.85013E-001	  7.84810E-001	  7.86334E-001	  7.80787E-001	  7.88119E-001	
  2.60000E-003	  7.83967E-001	  7.85124E-001	  7.85705E-001	  7.83053E-001	  7.81985E-001	
  2.80000E-003	  7.82964E-001	  7.85052E-001	  7.80965E-001	  7.82996E-001	  7.82842E-001	
  3.00000E-003	  7.79745E-001	  7.83699E-001	  7.85491E-001	  7.74805E-001	  7.74986E-001	
  3.20000E-003	  7.80299E-001	  7.86857E-001	  7.82507E-001	  7.78497E-001	  7.73336E-001	
  3.60000E-003	  7.77556E-001	  7.84645E-001	  7.79293E-001	  7.74692E-001	  7.71593E-001	
  4.00000E-003	  7.76645E-001	  7.77180E-001	  7.77263E-001	  7.73722E-001	  7.78417E-001	
  4.40000E-003	  7.74364E-001	  7.79092E-001	  7.76269E-001	  7.72922E-001	  7.69172E-001	
  4.80000E-003	  7.74143E-001	  7.79548E-001	  7.74027E-001	  7.72079E-001	  7.70915E-001	
  5.20000E-003	  7.72074E-001	  7.78426E-001	  7.68637E-001	  7.70483E-001	  7.70751E-001	
  5.60000E-003	  7.68632E-001	  7.71531E-001	  7.68104E-001	  7.66110E-001	  7.68783E-001	
  6.00000E-003	  7.67163E-001	  7.71043E-001	  7.67997E-001	  7.63778E-001	  7.65834E-001	
  6.40000E-003	  7.65284E-001	  7.67858E-001	  7.68039E-001	  7.61810E-001	  7.63430E-001	
  7.20000E-003	  7.62737E-001	  7.64134E-001	  7.65603E-001	  7.59266E-001	  7.61946E-001	
  8.00000E-003	  7.57119E-001	  7.57609E-001	  7.60337E-001	  7.55392E-001	  7.55139E-001	
  8.80000E-003	  7.53440E-001	  7.53883E-001	  7.54382E-001	  7.54785E-001	  7.50711E-001	
  9.60000E-003	  7.51124E-001	  7.52173E-001	  7.51910E-001	  7.50140E-001	  7.50274E-001	
  1.04000E-002	  7.46234E-001	  7.50951E-001	  7.46935E-001	  7.43326E-001	  7.43725E-001	
  1.12000E-002	  7.42241E-001	  7.44027E-001	  7.42926E-001	  7.40104E-001	  7.41906E-001	
  1.20000E-002	  7.39590E-001	  7.40435E-001	  7.41723E-001	  7.38617E-001	  7.37584E-001	
  1.28000E-002	  7.35590E-001	  7.37485E-001	  7.37366E-001	  7.34136E-001	  7.33373E-001	
  1.44000E-002	  7.27405E-001	  7.28701E-001	  7.29370E-001	  7.25023E-001	  7.26528E-001	
  1.60000E-002	  7.21889E-001	  7.24602E-001	  7.24141E-001	  7.18867E-001	  7.19948E-001	
  1.76000E-002	  7.13727E-001	  7.16281E-001	  7.14754E-001	  7.11904E-001	  7.11970E-001	
  1.92000E-002	  7.07536E-001	  7.09835E-001	  7.08397E-001	  7.06338E-001	  7.05575E-001	
  2.08000E-002	  7.00628E-001	  7.02062E-001	  7.03587E-001	  6.98460E-001	  6.98402E-001	
  2.24000E-002	  6.93532E-001	  6.94438E-001	  6.96923E-001	  6.91448E-001	  6.91319E-001	
  2.40000E-002	  6.87055E-001	  6.87012E-001	  6.89724E-001	  6.86599E-001	  6.84883E-001	
  2.56000E-002	  6.80774E-001	  6.82013E-001	  6.83042E-001	  6.79711E-001	  6.78330E-001	
  2.88000E-002	  6.67013E-001	  6.67054E-001	  6.70983E-001	  6.65953E-001	  6.64062E-001	
  3.20000E-002	  6.55124E-001	  6.57007E-001	  6.57879E-001	  6.53000E-001	  6.52613E-001	
  3.52000E-002	  6.43408E-001	  6.44597E-001	  6.46663E-001	  6.41551E-001	  6.40821E-001	
  3.84000E-002	  6.30294E-001	  6.31349E-001	  6.33048E-001	  6.27717E-001	  6.29062E-001	
  4.16000E-002	  6.17602E-001	  6.18055E-001	  6.19354E-001	  6.17597E-001	  6.15400E-001	
  4.48000E-002	  6.07048E-001	  6.07626E-001	  6.09671E-001	  6.05855E-001	  6.05039E-001	
  4.80000E-002	  5.96873E-001	  5.97467E-001	  5.99290E-001	  5.94694E-001	  5.96043E-001	
  5.12000E-002	  5.85377E-001	  5.85882E-001	  5.87914E-001	  5.83842E-001	  5.83870E-001	
  5.76000E-002	  5.63453E-001	  5.63672E-001	  5.65728E-001	  5.62580E-001	  5.61833E-001	
  6.40000E-002	  5.44230E-001	  5.44111E-001	  5.46776E-001	  5.43223E-001	  5.42810E-001	
  7.04000E-002	  5.24764E-001	  5.23421E-001	  5.28022E-001	  5.24479E-001	  5.23133E-001	
  7.68000E-002	  5.06241E-001	  5.04938E-001	  5.09765E-001	  5.05423E-001	  5.04836E-001	
  8.32000E-002	  4.87895E-001	  4.87253E-001	  4.90332E-001	  4.87420E-001	  4.86574E-001	
  8.96000E-002	  4.71867E-001	  4.71390E-001	  4.74586E-001	  4.71116E-001	  4.70375E-001	
  9.60000E-002	  4.55867E-001	  4.53944E-001	  4.59210E-001	  4.55156E-001	  4.55157E-001	
  1.02400E-001	  4.40667E-001	  4.39762E-001	  4.43225E-001	  4.39728E-001	  4.39953E-001	
  1.15200E-001	  4.11245E-001	  4.09547E-001	  4.14121E-001	  4.11397E-001	  4.09914E-001	
  1.28000E-001	  3.84644E-001	  3.83215E-001	  3.87810E-001	  3.83780E-001	  3.83769E-001	
  1.40800E-001	  3.60298E-001	  3.58930E-001	  3.63498E-001	  3.58998E-001	  3.59766E-001	
  1.53600E-001	  3.37579E-001	  3.36724E-001	  3.41100E-001	  3.36428E-001	  3.36064E-001	
  1.66400E-001	  3.17037E-001	  3.15911E-001	  3.19977E-001	  3.15924E-001	  3.16337E-001	
  1.79200E-001	  2.97381E-001	  2.96091E-001	  3.00676E-001	  2.96419E-001	  2.96336E-001	
  1.92000E-001	  2.79329E-001	  2.78282E-001	  2.82329E-001	  2.78042E-001	  2.78664E-001	
  2.04800E-001	  2.63224E-001	  2.62120E-001	  2.66403E-001	  2.62190E-001	  2.62181E-001	
  2.30400E-001	  2.33383E-001	  2.31876E-001	  2.36903E-001	  2.32185E-001	  2.32566E-001	
  2.56000E-001	  2.07653E-001	  2.06439E-001	  2.09919E-001	  2.07446E-001	  2.06807E-001	
  2.81600E-001	  1.85405E-001	  1.83321E-001	  1.87868E-001	  1.85185E-001	  1.85247E-001	
  3.07200E-001	  1.65885E-001	  1.63699E-001	  1.67674E-001	  1.65577E-001	  1.66590E-001	
  3.32800E-001	  1.48813E-001	  1.47216E-001	  1.50778E-001	  1.47981E-001	  1.49278E-001	
  3.58400E-001	  1.33861E-001	  1.32692E-001	  1.35677E-001	  1.32671E-001	  1.34404E-001	
  3.84000E-001	  1.20796E-001	  1.20205E-001	  1.22678E-001	  1.19412E-001	  1.20889E-001	
  4.09600E-001	  1.09603E-001	  1.08949E-001	  1.11066E-001	  1.08866E-001	  1.09530E-001	
  4.60800E-001	  8.98428E-002	  8.88269E-002	  9.12069E-002	  8.93546E-002	  8.99830E-002	
  5.12000E-001	  7.43349E-002	  7.31927E-002	  7.58817E-002	  7.43511E-002	  7.39142E-002	
  5.63200E-001	  6.25618E-002	  6.19873E-002	  6.39297E-002	  6.26716E-002	  6.16585E-002	
  6.14400E-001	  5.29153E-002	  5.26882E-002	  5.33706E-002	  5.25290E-002	  5.30735E-002	
  6.65600E-001	  4.49121E-002	  4.47803E-002	  4.46550E-002	  4.45936E-002	  4.56194E-002	
  7.16800E-001	  3.78360E-002	  3.81625E-002	  3.71536E-002	  3.76495E-002	  3.83783E-002	
  7.68000E-001	  3.26135E-002	  3.26377E-002	  3.20092E-002	  3.29004E-002	  3.29069E-002	
  8.19200E-001	  2.81987E-002	  2.81269E-002	  2.72769E-002	  2.91555E-002	  2.82356E-002	
  9.21600E-001	  2.12723E-002	  2.10079E-002	  1.98939E-002	  2.28856E-002	  2.13018E-002	
  1.02400E+000	  1.62451E-002	  1.57932E-002	  1.47879E-002	  1.77416E-002	  1.66578E-002	
  1.12640E+000	  1.19624E-002	  1.15016E-002	  1.08163E-002	  1.30239E-002	  1.25078E-002	
  1.22880E+000	  9.18362E-003	  8.93906E-003	  8.87484E-003	  9.81094E-003	  9.10962E-003	
  1.33120E+000	  7.43692E-003	  7.38951E-003	  7.34915E-003	  8.12677E-003	  6.88223E-003	
  1.43360E+000	  6.26229E-003	  6.75198E-003	  5.25270E-003	  7.12585E-003	  5.91863E-003	
  1.53600E+000	  5.51290E-003	  6.23254E-003	  4.42472E-003	  6.26368E-003	  5.13067E-003	
  1.63840E+000	  4.85738E-003	  5.56522E-003	  4.69607E-003	  4.49118E-003	  4.67706E-003	
  1.84320E+000	  3.61770E-003	  4.53228E-003	  4.05722E-003	  1.75767E-003	  4.12364E-003	
  2.04800E+000	  2.42616E-003	  3.10157E-003	  1.83719E-003	  1.74513E-003	  3.02076E-003	
  2.25280E+000	  1.26645E-003	  1.07935E-003	 -4.03280E-004	  3.14188E-003	  1.24786E-003	
  2.45760E+000	  1.84623E-003	  1.32709E-003	 -4.32028E-004	  4.10125E-003	  2.38863E-003	
  2.66240E+000	  1.09762E-003	  1.20019E-003	 -7.81411E-004	  3.26889E-003	  7.02789E-004	
  2.86720E+000	  1.61724E-004	  2.88745E-004	 -7.21497E-004	  1.76874E-003	 -6.89089E-004	
  3.07200E+000	  2.67761E-004	  7.63980E-004	 -5.73885E-004	  1.60040E-003	 -7.19453E-004	
  3.22560E+000	  3.47298E-004	  1.12045E-003	 -4.63164E-004	  1.47414E-003	 -7.42229E-004	
  3.63520E+000	 -5.47232E-004	 -5.91746E-004	 -1.40387E-003	  7.53997E-004	 -9.47309E-004	
  4.04480E+000	 -1.66864E-003	 -2.35905E-003	 -1.84926E-003	 -1.30314E-003	 -1.16310E-003	
  4.45440E+000	 -5.54655E-004	 -3.17453E-004	 -9.82686E-004	 -1.14702E-003	  2.28545E-004	
  4.86400E+000	  5.90236E-005	  2.10890E-003	 -8.24413E-004	  1.25808E-004	 -1.17420E-003	
  5.27360E+000	 -1.35921E-005	  2.39718E-003	 -3.46857E-004	 -3.23754E-004	 -1.78093E-003	
  5.68320E+000	  8.26869E-004	  2.36777E-003	  2.52152E-004	  8.24879E-004	 -1.37328E-004	
  6.09280E+000	  9.32056E-004	  1.79536E-003	 -1.01819E-004	  6.08821E-004	  1.42586E-003	
  6.50240E+000	  4.23152E-004	  1.71968E-003	 -6.47680E-004	  5.69077E-004	  5.15318E-005	
  7.32160E+000	 -5.39651E-004	 -8.45943E-004	 -1.03600E-003	 -1.68905E-004	 -1.07759E-004	
  8.14080E+000	 -8.07410E-004	 -1.85050E-003	 -1.08205E-003	  9.96296E-004	 -1.29338E-003	
  8.96000E+000	 -8.25015E-004	 -1.71831E-003	 -9.74896E-004	  9.77915E-004	 -1.58477E-003	
  9.77920E+000	 -3.93640E-004	  6.63599E-005	 -5.69032E-004	 -4.33051E-004	 -6.38839E-004	
  1.05984E+001	 -2.80755E-005	  1.70764E-003	 -7.16018E-004	 -9.17822E-004	 -1.86098E-004	
  1.14176E+001	 -2.82359E-004	  1.69480E-003	 -1.38980E-004	 -2.52947E-003	 -1.55781E-004	
  1.22368E+001	  5.88270E-005	  1.68962E-003	 -5.73580E-004	  4.20338E-004	 -1.30107E-003	
  1.30560E+001	 -5.55875E-004	  6.10189E-005	 -9.97951E-004	 -3.65064E-004	 -9.21505E-004	
  1.46944E+001	  4.69951E-004	  3.63125E-004	  2.23767E-004	  3.33641E-004	  9.59272E-004	
  1.63328E+001	  1.22342E-003	  2.05204E-003	 -1.17488E-004	  1.58600E-003	  1.37314E-003	
  1.79712E+001	  1.23236E-004	  1.15311E-003	  1.02335E-003	 -9.03729E-004	 -7.79785E-004	
  1.96096E+001	  2.71359E-004	 -4.85818E-004	  1.07846E-003	  2.31053E-005	  4.69691E-004	
  2.12480E+001	  1.47057E-004	  1.62791E-004	 -1.42287E-004	  8.04133E-004	 -2.36409E-004	
  2.28864E+001	  6.11817E-004	  9.49851E-004	  1.09263E-004	  1.76167E-003	 -3.73519E-004	
  2.45248E+001	  4.95650E-004	  3.52991E-004	  4.03180E-004	  6.75730E-004	  5.50701E-004	
  2.61632E+001	  7.00529E-005	  1.41444E-003	 -1.89570E-004	 -4.91292E-004	 -4.53367E-004	
  2.94400E+001	 -1.94616E-004	  5.03967E-005	 -1.27570E-004	 -8.30080E-004	  1.28790E-004	
  3.27168E+001	 -1.07964E-004	  7.58477E-005	  5.78672E-004	 -1.40901E-003	  3.22635E-004	
  3.59936E+001	  2.56943E-004	  1.47816E-003	  4.41780E-004	  3.74440E-004	 -1.26661E-003	
  3.92704E+001	  2.95662E-004	  7.94545E-004	 -3.26605E-004	  9.32002E-004	 -2.17292E-004	
  4.25472E+001	 -8.64834E-005	  1.58727E-004	  2.23327E-005	 -6.30090E-004	  1.03097E-004	
  4.58240E+001	  4.91139E-004	 -2.55080E-005	  1.45686E-004	  1.00363E-003	  8.40747E-004	
  4.91008E+001	  3.02113E-004	  3.49379E-004	  1.47269E-003	 -9.61401E-004	  3.47780E-004	
  5.23776E+001	 -1.24348E-004	  8.98800E-005	 -4.45283E-004	 -2.28169E-004	  8.61802E-005	
  5.89312E+001	 -2.50153E-004	 -5.23889E-004	  4.79029E-004	 -4.67510E-004	 -4.88241E-004	
  6.54848E+001	 -2.68050E-004	 -5.25329E-004	 -2.93218E-004	  1.25118E-004	 -3.78772E-004	
  7.20384E+001	  1.39628E-005	 -1.50764E-004	 -6.09010E-004	  5.54217E-004	  2.61408E-004	
  7.85920E+001	 -1.10055E-004	  2.60246E-004	 -3.00498E-004	 -8.42525E-004	  4.42558E-004	
  8.51456E+001	  2.39469E-004	 -2.16672E-004	 -5.22575E-005	 -1.95803E-004	  1.42261E-003	
  9.16992E+001	 -4.75036E-005	 -3.42369E-004	 -1.32785E-004	 -1.99757E-004	  4.84896E-004	
  9.82528E+001	  2.89361E-004	  1.09176E-003	  3.32161E-004	 -3.52064E-004	  8.55866E-005	
  1.04806E+002	 -1.52476E-004	  7.57681E-004	 -7.14632E-004	 -2.47923E-004	 -4.05029E-004	
  1.17914E+002	 -3.04432E-004	 -4.02404E-004	 -3.38834E-004	 -1.58091E-004	 -3.18399E-004	
  1.31021E+002	  2.81571E-004	  8.54806E-005	  1.54896E-005	  7.48013E-004	  2.77303E-004	
  1.44128E+002	  1.01828E-004	 -3.94490E-004	 -1.26951E-004	  7.23095E-004	  2.05660E-004	
  1.57235E+002	  2.24466E-004	  1.03545E-004	  4.29922E-004	  1.64569E-004	  1.99828E-004	
  1.70342E+002	 -6.26483E-006	 -3.04048E-004	  8.48657E-004	 -3.90473E-004	 -1.79195E-004	
  1.83450E+002	 -5.02619E-005	  3.97949E-004	  3.78652E-004	 -9.33413E-004	 -4.42351E-005	
  1.96557E+002	  5.64831E-005	 -1.45632E-004	 -2.37170E-006	 -1.50919E-005	  3.89028E-004	
  2.09664E+002	  1.15916E-004	 -1.05103E-004	  2.28632E-004	  9.36998E-005	  2.46437E-004	
  2.35878E+002	  1.07545E-004	 -3.75580E-004	  6.34288E-004	 -1.20288E-005	  1.83499E-004	
  2.62093E+002	  1.38919E-004	  1.86610E-005	  5.20510E-004	 -6.40186E-005	  8.05231E-005	
  2.88307E+002	  1.68481E-004	  2.43887E-005	  4.22120E-004	  2.61645E-004	 -3.42280E-005	
  3.14522E+002	 -2.18016E-004	 -3.32118E-004	 -7.32296E-005	 -6.25305E-005	 -4.04185E-004	
  3.40736E+002	 -1.56396E-004	 -2.61664E-004	 -1.32862E-004	 -7.71652E-005	 -1.53892E-004	
  3.66950E+002	 -2.85503E-004	 -2.58245E-004	 -4.47045E-004	 -2.62393E-004	 -1.74329E-004	
  3.93165E+002	  4.35095E-005	 -1.53262E-004	  2.82942E-004	 -1.52224E-004	  1.96582E-004	
  4.19379E+002	  4.01098E-005	 -5.66851E-005	  2.50567E-004	 -3.64374E-004	  3.30932E-004	
  4.71808E+002	  2.31772E-006	 -7.17253E-005	 -6.93887E-005	  7.05611E-005	  7.98238E-005	
  5.24237E+002	  1.32283E-004	 -4.15257E-005	  4.82528E-005	  2.49588E-004	  2.72816E-004	
  5.76666E+002	  9.93985E-005	  1.14664E-004	  1.27945E-004	  7.34879E-005	  8.14968E-005	
  6.29094E+002	 -1.46486E-005	 -3.00446E-004	  6.33605E-005	  3.06424E-005	  1.47848E-004	
  6.81523E+002	  7.27469E-005	 -6.70832E-005	  1.55386E-004	 -7.80132E-005	  2.80698E-004	
  7.33952E+002	  9.77124E-005	  6.69185E-005	  2.15423E-004	 -9.81768E-005	  2.06685E-004	
  7.86381E+002	  2.09372E-006	 -2.43092E-005	  4.51207E-005	 -1.30295E-004	  1.17858E-004	
  8.38810E+002	  1.64016E-004	  2.02108E-004	  4.01836E-004	  4.52033E-005	  6.91659E-006	
  9.43667E+002	  2.03430E-005	  2.61995E-004	 -1.41921E-004	  8.82936E-006	 -4.75309E-005	
  1.04852E+003	  6.67744E-005	  1.82889E-004	  3.40608E-004	 -2.02305E-004	 -5.40940E-005	
  1.15338E+003	  6.12496E-005	  2.44255E-004	 -7.55004E-005	 -1.49136E-004	  2.25379E-004	
  1.25824E+003	  1.78294E-004	  3.51324E-004	  1.24514E-004	  1.26865E-007	  2.37211E-004	
  1.36310E+003	  1.13994E-004	 -9.18458E-005	  1.89087E-004	  3.51087E-004	  7.64750E-006	
  1.46796E+003	 -5.12227E-005	  1.30877E-005	  3.91779E-005	 -2.77101E-004	  1.99446E-005	
  1.57281E+003	  8.46416E-006	 -1.72409E-005	  1.11056E-004	 -1.19046E-004	  5.90879E-005	
  1.67767E+003	  1.48025E-004	  1.38088E-004	  1.99073E-004	  8.82979E-005	  1.66643E-004	
  1.88739E+003	 -2.67051E-005	  5.32636E-005	  5.72848E-006	 -4.03157E-005	 -1.25497E-004	
  2.09710E+003	  7.27372E-005	  1.42626E-004	  2.14202E-005	 -4.22126E-005	  1.69116E-004	
  2.30682E+003	  9.17515E-005	  1.52382E-004	  1.08852E-004	 -7.88802E-005	  1.84652E-004	
  2.51653E+003	  4.85732E-006	 -1.63289E-005	  5.20560E-005	 -9.84151E-005	  8.21173E-005	
  2.72625E+003	 -7.39807E-005	 -6.52070E-006	 -1.62377E-004	 -1.34959E-004	  7.93463E-006	
  2.93596E+003	 -4.88439E-005	 -1.89198E-005	 -1.22452E-004	 -4.16432E-005	 -1.23603E-005	
  3.14568E+003	  1.85904E-005	  1.90731E-004	 -6.74402E-005	 -1.08613E-004	  5.96846E-005	
  3.35539E+003	  3.15551E-005	  1.37033E-004	  4.02256E-006	  9.97300E-006	 -2.48080E-005	
  3.77482E+003	 -2.14768E-005	 -9.62112E-005	 -4.91869E-005	  4.31434E-006	  5.51767E-005	
  4.19425E+003	  1.18660E-005	  4.93954E-005	  1.29789E-004	 -5.94024E-005	 -7.23177E-005	
  4.61368E+003	 -2.84772E-005	 -8.39179E-006	 -1.11506E-005	 -9.20659E-005	 -2.30050E-006	
  5.03311E+003	 -3.11972E-005	  7.83334E-005	 -6.50953E-005	 -7.26017E-005	 -6.54252E-005	
  5.45254E+003	 -1.58612E-005	 -1.22834E-004	 -3.58481E-005	  9.99568E-005	 -4.71948E-006	
  5.87197E+003	  3.88239E-005	  1.11280E-004	 -2.76525E-005	  1.62943E-004	 -9.12741E-005	
  6.29140E+003	 -4.33666E-005	 -1.82818E-005	  4.27968E-005	 -4.09996E-005	 -1.56982E-004	
  6.71083E+003	 -2.14160E-005	 -6.58687E-006	 -4.25197E-006	  1.12442E-005	 -8.60695E-005	
  7.54970E+003	 -6.14200E-005	 -5.15180E-005	 -1.08649E-004	 -1.09631E-005	 -7.45502E-005	
  8.38856E+003	 -6.62255E-005	 -5.36831E-005	 -1.17071E-004	 -4.26117E-005	 -5.15363E-005	
  9.22742E+003	 -5.95478E-005	 -7.64115E-005	 -1.70844E-004	  2.24039E-005	 -1.33397E-005	
  1.00663E+004	 -1.34893E-004	 -9.63049E-005	 -1.76743E-004	 -1.04277E-004	 -1.62246E-004	
  1.09051E+004	 -6.51144E-006	  8.01252E-005	 -6.54940E-005	 -1.05490E-004	  6.48128E-005	
  1.17440E+004	 -3.81936E-005	 -3.13645E-005	 -7.76487E-005	  3.17321E-005	 -7.54934E-005	
  1.25829E+004	 -8.23901E-006	 -1.19445E-006	 -2.17115E-005	  6.31034E-005	 -7.31535E-005	

"Count Rate"
       0.23438	     121.08436	     105.07010
       0.46875	     120.71303	     103.27319
       0.70313	     110.33278	      95.59471
       0.93750	     122.31786	     104.18658
       1.17188	     116.84605	     101.37811
       1.40625	     118.21187	      99.47023
       1.64063	     113.24369	      96.70871
       1.87500	     119.44537	     102.28724
       2.10938	     120.49962	     102.95734
       2.34375	     111.04557	      94.87339
       2.57813	     121.85690	     104.24634
       2.81250	     111.51507	      94.54900
       3.04688	     115.85582	      99.76473
       3.28125	     122.29652	     104.81828
       3.51563	     123.95258	     104.39999
       3.75000	     114.48573	      99.17146
       3.98438	     117.60152	     100.66959
       4.21875	     118.97587	     101.96285
       4.45313	     116.00094	      99.68791
       4.68750	     117.51615	     101.86896
       4.92188	     117.26006	     100.60557
       5.15625	     115.03206	      98.68488
       5.39063	     115.98814	     100.17875
       5.62500	     111.94189	      95.12948
       5.85938	     114.23391	      98.88976
       6.09375	     112.07847	      96.23921
       6.32813	     120.87095	     103.26466
       6.56250	     122.96236	     103.35429
       6.79688	     120.46547	     102.98722
       7.03125	     112.67602	      95.69715
       7.26563	     122.54408	     103.82806
       7.50000	     114.73328	      98.88122
       7.73438	     111.07971	      96.26055
       7.96875	     111.38702	      94.95448
       8.20313	     109.82913	      92.41491
       8.43750	     119.74415	     103.24758
       8.67188	     115.46741	     100.23424
       8.90625	     112.11262	      95.99165
       9.14063	     118.59600	     102.56467
       9.37500	     121.96787	     103.84086
       9.60938	     121.34045	     103.39270
       9.84375	     125.81779	     107.43041
      10.07813	     112.28761	      96.67030
      10.31250	     120.11548	     103.24332
      10.54688	     116.23996	     101.57445
      10.78125	     117.50334	     101.24153
